Baseline 100%T,,empty_1,,empty_2_1,,empty_2_2,,empty_2_3,,empty_2_4,,empty_2_5,,empty_2_6,,empty_2_7,,empty_2_8,,empty_2_9,,empty_2_10,,empty_2_11,,empty_2_12,,empty_2_13,,empty_2_14,,empty_2_15,,empty_3_1,,empty_3_2,,empty_3_3,,empty_3_4,,empty_3_5,,VG05_1_1,,VG05_1_2,,VG05_1_3,,VG05_1_4,,VG05_1_5,,Baseline 100%T,,empty_4_1,,empty_4_2,,VG09-12_1_0,,VG09-12_1_2,,VG09-12_1_4,,VG09-12_1_6,,VG09-12_1_8,,VG09-12_1_10,,VG09-12_1_12,,VG09-12_1_14,,VG09-12_1_16,,VG09-12_1_18,,VG09-12_1_20,,VG09-12_1_22,,VG09-12_1_24,,VG09-12_1_26,,VG09-12_1_28,,VG09-12_1_30,,VG09-12_1_32,,VG09-12_1_34,,VG09-12_1_36,,VG09-12_1_38,,VG09-12_1_40,,VG09-12_1_42,,VG09-12_1_44,,VG09-12_1_46,,VG09-12_1_48,,VG09-12_1_50,,empty_5_1,,empty_5_2,,empty_5_3,,empty_5_4,,empty_5_5,,
Wavelength (nm),%T,Wavelength (nm),%T,Wavelength (nm),%T,Wavelength (nm),%T,Wavelength (nm),%T,Wavelength (nm),%T,Wavelength (nm),%T,Wavelength (nm),%T,Wavelength (nm),%T,Wavelength (nm),%T,Wavelength (nm),%T,Wavelength (nm),%T,Wavelength (nm),%T,Wavelength (nm),%T,Wavelength (nm),%T,Wavelength (nm),%T,Wavelength (nm),%T,Wavelength (nm),%T,Wavelength (nm),%T,Wavelength (nm),%T,Wavelength (nm),%T,Wavelength (nm),%T,Wavelength (nm),%T,Wavelength (nm),%T,Wavelength (nm),%T,Wavelength (nm),%T,Wavelength (nm),%T,Wavelength (nm),%T,Wavelength (nm),%T,Wavelength (nm),%T,Wavelength (nm),%T,Wavelength (nm),%T,Wavelength (nm),%T,Wavelength (nm),%T,Wavelength (nm),%T,Wavelength (nm),%T,Wavelength (nm),%T,Wavelength (nm),%T,Wavelength (nm),%T,Wavelength (nm),%T,Wavelength (nm),%T,Wavelength (nm),%T,Wavelength (nm),%T,Wavelength (nm),%T,Wavelength (nm),%T,Wavelength (nm),%T,Wavelength (nm),%T,Wavelength (nm),%T,Wavelength (nm),%T,Wavelength (nm),%T,Wavelength (nm),%T,Wavelength (nm),%T,Wavelength (nm),%T,Wavelength (nm),%T,Wavelength (nm),%T,Wavelength (nm),%T,Wavelength (nm),%T,Wavelength (nm),%T,Wavelength (nm),%T,Wavelength (nm),%T,Wavelength (nm),%T,
1775,5.489972591,1775,99.67381287,1775,99.47875977,1775,99.29995728,1775,99.24274445,1775,99.27274323,1775,99.25663757,1775,99.31777191,1775,99.35417175,1775,99.36986542,1775,99.36951447,1775,99.42732239,1775,99.43821716,1775,99.49134064,1775,99.51919556,1775,99.71820068,1775,99.60887146,1775,100.0316849,1775,100.0645752,1775,100.0757065,1775,100.1592255,1775,100.1691208,1775,53.19662094,1775,53.23624039,1775,53.28033447,1775,53.28952789,1775,53.30781174,1775,5.532123089,1775,100.0381851,1775,100.1054306,1775,100.1492844,1775,87.4571228,1775,52.02879333,1775,51.39870453,1775,52.0696106,1775,52.26580048,1775,52.67498398,1775,52.64971924,1775,57.16373444,1775,53.53144836,1775,53.50645828,1775,53.49811172,1775,53.46199417,1775,53.50574112,1775,53.57450867,1775,53.60091782,1775,53.65864563,1775,53.66806412,1775,53.70110703,1775,53.7481308,1775,51.72718048,1775,49.19129181,1775,100.5397568,1775,100.8597412,1775,100.9793777,1775,101.0391693,1775,101.1241226,1775,101.1372833,1775,101.1569138,1775,101.1567383,1775,101.1826172,
1765,5.658690453,1765,99.66976929,1765,99.49494934,1765,99.30285645,1765,99.2322998,1765,99.25401306,1765,99.23915863,1765,99.31005096,1765,99.32525635,1765,99.35901642,1765,99.39161682,1765,99.41381836,1765,99.42215729,1765,99.48795319,1765,99.50687408,1765,99.71460724,1765,99.61698151,1765,100.0276108,1765,100.0489197,1765,100.0754089,1765,100.1109238,1765,100.1377716,1765,53.20754242,1765,53.2165184,1765,53.24655914,1765,53.25747299,1765,53.28475952,1765,5.700670719,1765,100.0620575,1765,100.1227646,1765,100.1282959,1765,87.50523376,1765,51.95458984,1765,51.40073395,1765,52.06223297,1765,52.2183342,1765,52.65705109,1765,52.59144974,1765,57.16123581,1765,53.53261948,1765,53.49396896,1765,53.47682953,1765,53.44239426,1765,53.52122116,1765,53.60673141,1765,53.58562469,1765,53.64519882,1765,53.65784073,1765,53.70317078,1765,53.75138474,1765,51.73880386,1765,49.13514709,1765,100.5273361,1765,100.8587952,1765,101.0112381,1765,101.0448074,1765,101.1166229,1765,101.1300201,1765,101.1851654,1765,101.1722336,1765,101.2027512,
1755,5.852805138,1755,99.66156769,1755,99.47814178,1755,99.38562775,1755,99.21146393,1755,99.24312592,1755,99.25779724,1755,99.30814362,1755,99.33247375,1755,99.34454346,1755,99.39440918,1755,99.40412903,1755,99.43684387,1755,99.47412872,1755,99.51845551,1755,99.57660675,1755,99.61200714,1755,100.0048676,1755,100.0573883,1755,100.0838623,1755,100.1166077,1755,100.1464691,1755,53.18981934,1755,53.21147919,1755,53.22142792,1755,53.2562027,1755,53.28658295,1755,5.896615982,1755,100.0625992,1755,100.1092682,1755,100.1497498,1755,87.53372192,1755,51.88470459,1755,51.38312149,1755,52.008255,1755,52.18647766,1755,52.62163925,1755,52.55088806,1755,57.16031265,1755,53.53144836,1755,53.49779129,1755,53.49778366,1755,53.42477036,1755,53.50966644,1755,53.58354568,1755,53.56141281,1755,53.61861038,1755,53.62865448,1755,53.68132782,1755,53.71274948,1755,51.71229172,1755,49.15486145,1755,100.5626831,1755,100.8867874,1755,100.9983444,1755,101.0426254,1755,101.1105499,1755,101.1549683,1755,101.1773911,1755,101.1923294,1755,101.1948853,
1745,6.037975311,1745,99.6552124,1745,99.46992493,1745,99.37982178,1745,99.21800232,1745,99.2514801,1745,99.23728943,1745,99.27592468,1745,99.31482697,1745,99.34426117,1745,99.39753723,1745,99.41082764,1745,99.42001343,1745,99.4773941,1745,99.4994812,1745,99.55848694,1745,99.615242,1745,99.99328613,1745,100.0621643,1745,100.0972519,1745,100.1229782,1745,100.1656265,1745,53.18295288,1745,53.20724869,1745,53.22854614,1745,53.25057602,1745,53.28699493,1745,6.083665848,1745,100.0456085,1745,100.0732574,1745,100.1119461,1745,87.5348587,1745,51.85038376,1745,51.32291794,1745,51.94245529,1745,52.12102509,1745,52.63312912,1745,52.53570557,1745,57.14206696,1745,53.49566269,1745,53.47128677,1745,53.46173096,1745,53.39165878,1745,53.47845459,1745,53.55789566,1745,53.5678978,1745,53.63518524,1745,53.60307693,1745,53.64973068,1745,53.71376419,1745,51.6902504,1745,49.10585785,1745,100.5181808,1745,100.8797531,1745,101.0064697,1745,101.009819,1745,101.1155472,1745,101.1323776,1745,101.1586456,1745,101.1805038,1745,101.1863022,
1735,6.230379105,1735,99.67716217,1735,99.4961319,1735,99.34646606,1735,99.24494934,1735,99.25378418,1735,99.24287415,1735,99.30178833,1735,99.3122406,1735,99.35760498,1735,99.4021759,1735,99.41336823,1735,99.45954895,1735,99.48126221,1735,99.5259552,1735,99.59021759,1735,99.63116455,1735,100.0245819,1735,100.0611877,1735,100.0830765,1735,100.1297379,1735,100.206604,1735,53.18853378,1735,53.20846558,1735,53.24174881,1735,53.24863052,1735,53.27219391,1735,6.277964115,1735,100.0677338,1735,100.1025467,1735,100.1375198,1735,87.55799866,1735,51.86854172,1735,51.31985474,1735,51.8751564,1735,52.06949615,1735,52.64365005,1735,52.52022552,1735,57.11699295,1735,53.47755051,1735,53.46999359,1735,53.46971893,1735,53.40203476,1735,53.47122574,1735,53.52865601,1735,53.59025574,1735,53.59445953,1735,53.63089371,1735,53.67092514,1735,53.69898605,1735,51.67548752,1735,49.14178085,1735,100.5340195,1735,100.8855438,1735,101.0011673,1735,101.0300751,1735,101.1332245,1735,101.1411209,1735,101.1607208,1735,101.1825714,1735,101.1643295,
1725,6.429243088,1725,99.64595032,1725,99.45701599,1725,99.32363892,1725,99.20453644,1725,99.21127319,1725,99.20531464,1725,99.27626038,1725,99.31339264,1725,99.33604431,1725,99.37052155,1725,99.38868713,1725,99.427742,1725,99.46337891,1725,99.49499512,1725,99.54753876,1725,99.59285736,1725,100.0110168,1725,100.0530243,1725,100.0824814,1725,100.1326218,1725,100.1766434,1725,53.17353058,1725,53.1989975,1725,53.19912338,1725,53.22268677,1725,53.26613617,1725,6.477949142,1725,100.0417328,,,1725,100.1080475,1725,87.54232025,1725,51.94212723,1725,51.1920166,1725,51.78873062,1725,51.98935318,1725,52.60187912,1725,52.48059464,1725,57.0925293,1725,53.47769928,1725,53.42692184,1725,53.42373276,1725,53.40445709,1725,53.45589447,1725,53.52616119,1725,53.51199341,1725,53.54747009,1725,53.59637833,1725,53.62372589,1725,53.68423462,1725,51.63465881,1725,49.14135742,1725,100.5128479,1725,100.860939,1725,100.9881134,1725,101.0269623,1725,101.1232529,1725,101.1218567,1725,101.1590118,1725,101.171196,1725,101.1804352,
1715,6.631819248,1715,99.65631104,1715,99.45661163,1715,99.3558197,1715,99.21356201,1715,99.18323517,1715,99.22232056,1715,99.28635406,1715,99.31930542,1715,99.33055115,1715,99.35546112,1715,99.39260864,1715,99.4294281,1715,99.46784973,1715,99.49767303,1715,99.56434631,1715,99.62033844,1715,100.0407791,1715,100.0552444,1715,100.0931396,1715,100.1320572,1715,100.1801834,1715,53.14806747,1715,53.17664337,1715,53.21155167,1715,53.23474503,1715,53.24880981,1715,6.681864738,1715,100.0627136,,,1715,100.1177444,1715,87.58940887,1715,51.90024948,1715,51.11983871,1715,51.64431763,1715,51.91155243,1715,52.53868866,1715,52.47319412,1715,57.1002121,1715,53.46437836,1715,53.43619537,1715,53.43325806,1715,53.37567902,1715,53.43400192,1715,53.51933289,1715,53.54297256,1715,53.55442047,1715,53.60186005,1715,53.63153839,1715,53.66237259,1715,51.62692261,1715,49.12896347,1715,100.5251312,1715,100.8505707,1715,100.9925842,1715,101.0091171,1715,101.1199112,1715,101.1407013,1715,101.162323,1715,101.1845245,1715,101.1765442,
1705,6.84224987,1705,99.64225769,1705,99.44303894,1705,99.31211853,1705,99.1905365,1705,99.18095398,1705,99.2130127,1705,99.25538635,1705,99.29358673,1705,99.29817963,1705,99.33998108,1705,99.376297,1705,99.4257431,1705,99.45031738,1705,99.50115204,1705,99.54627228,1705,99.58422089,1705,100.0133133,1705,100.0387802,1705,100.0716476,1705,100.1134262,1705,100.1594086,1705,53.13685608,1705,53.15530396,1705,53.19132233,1705,53.21225357,1705,53.24624252,1705,6.893417358,1705,100.0542374,,,1705,100.1249084,1705,87.56743622,1705,51.77212906,1705,51.16351318,1705,51.7005806,1705,51.91843414,1705,52.50704956,1705,52.47529602,1705,57.08101273,1705,53.46178436,1705,53.39662933,1705,53.4001236,1705,53.36336517,1705,53.43480682,1705,53.50093842,1705,53.54600525,1705,53.54994583,1705,53.5618248,1705,53.61866379,1705,53.65082169,1705,51.59903717,1705,49.12699127,1705,100.5058975,1705,100.8404617,1705,100.9754333,1705,101.0181656,1705,101.088295,1705,101.1134644,1705,101.1348724,1705,101.1608963,1705,101.1631012,
1695,7.055514336,1695,99.64426422,1695,99.45063019,1695,99.27822876,1695,99.18399048,1695,99.16782379,1695,99.20952606,1695,99.24675751,1695,99.30348969,1695,99.29909515,1695,99.33945465,1695,99.37263489,1695,99.40414429,1695,99.44508362,1695,99.49521637,1695,99.55117035,1695,99.59117126,1695,99.99598694,1695,100.0317078,1695,100.0562286,1695,100.0894928,1695,100.1693954,1695,53.14652252,1695,53.14553833,1695,53.16843414,1695,53.19623947,1695,53.21992493,1695,7.107063293,1695,100.0544662,,,1695,100.1237869,1695,87.57871246,1695,51.82738876,1695,51.07123184,1695,51.56972504,1695,51.82125092,1695,52.4875946,1695,52.46076584,1695,57.04756546,1695,53.43812561,1695,53.40058136,1695,53.40769196,1695,53.33570099,1695,53.42556381,1695,53.48262787,1695,53.52124405,1695,53.52127075,1695,53.55208588,1695,53.60550308,1695,53.64375687,1695,51.57839203,1695,49.10369492,1695,100.5183792,1695,100.8355713,1695,101.0087585,1695,101.0114899,1695,101.1003113,1695,101.1087646,1695,101.135788,1695,101.1516724,1695,101.1615372,
1685,7.275558949,1685,99.64518738,1685,99.48742676,1685,99.2454071,1685,99.20409393,1685,99.17006683,1685,99.20091248,1685,99.26364136,1685,99.29550171,1685,99.31456757,1685,99.35137939,1685,99.37874603,1685,99.41951752,1685,99.43965912,1685,99.48683167,1685,99.54349518,1685,99.60514069,1685,99.99219513,1685,100.0414505,1685,100.0674515,1685,100.1070633,1685,100.1910553,1685,53.13125229,1685,53.14651871,1685,53.18249893,1685,53.19222641,1685,53.20743179,1685,7.329968929,1685,100.041214,,,1685,100.101265,1685,87.55636597,1685,51.73727798,1685,51.07538223,1685,51.57567215,1685,51.83261108,1685,52.44870758,1685,52.43783569,1685,57.02868652,1685,53.41672134,1685,53.39336395,1685,53.35857773,1685,53.33026123,1685,53.38793564,1685,53.44405746,1685,53.45008469,1685,53.50682068,1685,53.54166031,1685,53.56852341,1685,53.6061821,1685,51.53989792,1685,49.10587692,1685,100.5087891,1685,100.8161697,1685,100.9895172,1685,100.9856339,1685,101.0731812,1685,101.1001129,1685,101.1203308,1685,101.1401215,1685,101.1570435,
1675,7.502149105,1675,99.62096405,1675,99.42705536,1675,99.2104187,1675,99.15503693,1675,99.1447525,1675,99.16883087,1675,99.24536133,1675,99.27075195,1675,99.27810669,1675,99.32053375,1675,99.36523438,1675,99.39910126,1675,99.40951538,1675,99.47077942,1675,99.51981354,1675,99.54792786,1675,99.97190094,1675,100.0141983,1675,100.0430603,1675,100.0832214,1675,100.1573334,1675,53.09717178,1675,53.11791992,1675,53.13664627,1675,53.17668915,1675,53.17856216,1675,7.556045055,1675,100.0362549,,,1675,100.1134033,1675,87.58534241,1675,51.72951889,1675,50.97339249,1675,51.51804733,1675,51.82978439,1675,52.38715363,1675,52.44067764,1675,57.02132034,1675,53.41862869,1675,53.37340927,1675,53.37728882,1675,53.29410934,1675,53.39508057,1675,53.42445374,1675,53.47853851,1675,53.5148735,1675,53.52072144,1675,53.56270599,1675,53.60517502,1675,51.51102448,1675,49.11664581,1675,100.5046158,1675,100.7984772,1675,100.976265,1675,100.9836655,1675,101.0593262,1675,101.096199,1675,101.1098175,1675,101.1385651,1675,101.1510239,
1665,7.730372906,1665,99.62314606,1665,99.42669678,1665,99.18068695,1665,99.16333008,1665,99.14832306,1665,99.18878937,1665,99.22887421,1665,99.27355957,1665,99.26699066,1665,99.30207825,1665,99.3588562,1665,99.37461853,1665,99.41580963,1665,99.45762634,1665,99.51699829,1665,99.55369568,1665,99.97766876,1665,99.99107361,1665,100.0416641,1665,100.0753632,1665,100.1418686,1665,53.07998657,1665,53.10150528,1665,53.11550522,1665,53.16027451,1665,53.18749619,1665,7.784198284,1665,100.0512924,,,1665,100.1150513,1665,87.5851593,1665,51.71131516,1665,50.94434738,1665,51.43291855,1665,51.76638794,1665,52.35124969,1665,52.41713715,1665,57.01862717,1665,53.37952423,1665,53.37916565,1665,53.35804749,1665,53.30263519,1665,53.37781143,1665,53.39925766,1665,53.45686722,1665,53.49136734,1665,53.5138855,1665,53.55146408,1665,53.59578705,1665,51.50894547,1665,49.121315,1665,100.4803772,1665,100.81353,1665,100.9986267,1665,101.0035172,1665,101.0658951,1665,101.0921326,1665,101.1245117,1665,101.1350021,1665,101.1605377,
1655,7.968396664,1655,99.6312561,1655,99.43701935,1655,99.21208954,1655,99.1561203,1655,99.15151215,1655,99.19252777,1655,99.24127197,1655,99.28714752,1655,99.30187988,1655,99.32095337,1655,99.36045837,1655,99.37484741,1655,99.42429352,1655,99.47731018,1655,99.51832581,1655,99.55062866,1655,99.97941589,1655,99.9876709,1655,100.0366364,1655,100.0819702,1655,100.1208572,1655,53.07370377,1655,53.09471512,1655,53.10040283,1655,53.13916779,1655,53.18240356,1655,8.023984909,1655,100.0439606,,,1655,100.1298294,1655,87.59509277,1655,51.67592239,1655,50.92515182,1655,51.38068771,1655,51.73443604,1655,52.31382751,1655,52.38714218,1655,57.00029755,1655,53.399189,1655,53.35559845,1655,53.36266708,1655,53.28801727,1655,53.35826874,1655,53.40531921,1655,53.43309784,1655,53.47380066,1655,53.51484299,1655,53.54188156,1655,53.57945633,1655,51.49576187,1655,49.14058304,1655,100.4775314,1655,100.8213501,1655,100.9824905,1655,100.9899597,1655,101.0727615,1655,101.1017075,1655,101.1304626,1655,101.1551056,1655,101.1539307,
1645,8.206851959,1645,99.61370087,1645,99.42099762,1645,99.23535919,1645,99.15792084,1645,99.13986969,1645,99.19669342,1645,99.23596191,1645,99.27954865,1645,99.27893066,1645,99.30054474,1645,99.37269592,1645,99.3650589,1645,99.42132568,1645,99.4529953,1645,99.49861145,1645,99.54714966,1645,99.96490479,1645,99.99256897,1645,100.0377502,1645,100.0817413,1645,100.1235962,1645,53.05870819,1645,53.08905792,1645,53.10585022,1645,53.12707901,1645,53.15666199,1645,8.264194489,1645,100.0543213,,,1645,100.1240463,1645,87.59063721,1645,51.63779831,1645,50.89163971,1645,51.34038925,1645,51.72648621,1645,52.27213669,1645,52.3600235,1645,56.97839355,1645,53.36616516,1645,53.32334518,1645,53.33441544,1645,53.27894211,1645,53.33950043,1645,53.38079834,1645,53.4252243,1645,53.45705795,1645,53.4847908,1645,53.51358032,1645,53.56952667,1645,51.47107697,1645,49.15486526,1645,100.4880753,1645,100.8172836,1645,100.9879456,1645,100.9953613,1645,101.0776749,1645,101.0866318,1645,101.108345,1645,101.1294708,1645,101.1431732,
1635,8.448400497,1635,99.61808014,1635,99.40501404,1635,99.17927551,1635,99.16790771,1635,99.14900208,1635,99.19562531,1635,99.2410965,1635,99.28627777,1635,99.28849792,1635,99.32059479,1635,99.36408234,1635,99.37055206,1635,99.41621399,1635,99.45617676,1635,99.5098877,1635,99.53901672,1635,99.95680237,1635,99.97299957,1635,100.0326309,1635,100.0670166,1635,100.105629,1635,53.04896927,1635,53.06756592,1635,53.07847214,1635,53.10619354,1635,53.13004303,1635,8.506462097,1635,100.0446091,,,1635,100.1163712,1635,87.58432007,1635,51.59109879,1635,50.83938217,1635,51.30404282,1635,51.71297073,1635,52.22578049,1635,52.33603287,1635,56.97305679,1635,53.3675499,1635,53.32972336,1635,53.32682037,1635,53.2517128,1635,53.32443619,1635,53.39929581,1635,53.42063904,1635,53.45674896,1635,53.47498703,1635,53.50071716,1635,53.55088806,1635,51.4307785,1635,49.15253067,1635,100.4738541,1635,100.8082886,1635,100.9565735,1635,100.9902344,1635,101.0800934,1635,101.0892639,1635,101.1155624,1635,101.1266251,1635,101.1505814,
1625,8.693713188,1625,99.60092163,1625,99.39383698,1625,99.16687012,1625,99.15830231,1625,99.12175751,1625,99.16086578,1625,99.22664642,1625,99.256073,1625,99.26795959,1625,99.30483246,1625,99.33521271,1625,99.35006714,1625,99.39601135,1625,99.45178986,1625,99.49313354,1625,99.53382111,1625,99.942276,1625,99.97990417,1625,99.99927521,1625,100.0662537,1625,100.0873108,1625,53.01968002,1625,53.04105759,1625,53.06577682,1625,53.08901596,1625,53.11675644,1625,8.752092361,1625,100.0367661,,,1625,100.1052475,1625,87.58392334,1625,51.55206299,1625,50.79576492,1625,51.2548027,1625,51.68721771,1625,52.19445038,1625,52.30009079,1625,56.9449234,1625,53.34886169,1625,53.29844284,1625,53.31298828,1625,53.23965454,1625,53.31070328,1625,53.37108231,1625,53.40619659,1625,53.42753601,1625,53.45542526,1625,53.48558426,1625,53.52920151,1625,51.40808868,1625,49.16112518,1625,100.4807129,1625,100.8113022,1625,100.9375229,1625,100.9721909,1625,101.047493,1625,101.0739899,1625,101.1209488,1625,101.1215439,1625,101.137207,
1615,8.941196442,1615,99.61486816,1615,99.39280701,1615,99.15409851,1615,99.15563965,1615,99.1292572,1615,99.18042755,1615,99.21833038,1615,99.24565887,1615,99.25956726,1615,99.31730652,1615,99.32852936,1615,99.35409546,1615,99.3925705,1615,99.45121002,1615,99.48952484,1615,99.53999329,1615,99.94156647,1615,99.97021484,1615,100.0042572,1615,100.057663,1615,100.1016617,1615,53.00193405,1615,53.04070663,1615,53.05714417,1615,53.07369995,1615,53.08976746,1615,9.001657486,1615,100.0507584,,,1615,100.1059036,1615,87.57793427,1615,51.52378845,1615,50.74440384,1615,51.20288849,1615,51.67525482,1615,52.15952301,1615,52.25876999,1615,56.94787979,1615,53.3427887,1615,53.29012299,1615,53.29983139,1615,53.21701813,1615,53.29996872,1615,53.36552811,1615,53.39919281,1615,53.42376328,1615,53.44007492,1615,53.47943115,1615,53.52008438,1615,51.3914032,1615,49.13495636,1615,100.456955,1615,100.8039703,1615,100.9521942,1615,100.9772034,1615,101.0668411,1615,101.0763397,1615,101.1050491,1615,101.1132736,1615,101.1351013,
